#Acq. time (s)=	15
#Accumulations=	2
#Range (cm-¹)=	10...2000
#Windows=	7
#Auto scanning=	On
#Autofocus=	Off
#AutoExposure=	Off
#Spike filter=	Multiple accum.
#Delay time (s)=	0
#Binning=	1
#Readout mode=	Signal
#DeNoise=	Off
#ICS correction=	Off
#Dark correction=	Off
#Inst. Process=	Off
#Detector Gain=	Best Dynamic Range
#Detector ADC=	45 kHz       
#Detector temperature (°C)=	-60.1
#Instrument=	LabRAM HR Evol
#Detector=	Syncerity OE
#Objective=	x100_VIS
#Grating=	600 (500nm)
#ND Filter=	100%
#Laser=	785nm_ULF
#Hole=	150.001
#Range=	Visible
#E-Cal_Neon=	0
#StageXY=	130x85mm Scan+
#StageZ=	Z motor
#X (µm)=	0
#Y (µm)=	0
#Z (µm)=	-912.7
#Spectral res.(cm-¹)=	5
#Full time(mm:ss)=	4:10
#AC=	Calibrated 2025-11-12 13:40
#Project=	POSA
#Sample=	20251112_PCM
#Site=	CMAC
#Title=	A7_20251112_PCM
#Remark=	
#Date=	12.11.2025 15:03
#Acquired=	12.11.2025 15:03:58
#AxisType[0]=Intens
#AxisUnit[0]=Cnt
#AxisType[1]=Spectr
#AxisUnit[1]=1/cm
10.0615	482
10.8907	461.098
11.7199	453.71
12.549	434.352
13.3779	438.808
14.2068	430.72
15.0355	437.745
15.8641	433.155
16.6927	434.462
17.5211	445.009
18.3484	419.846
19.1766	437.03
20.0047	446.362
20.8327	449.077
21.6605	437.59
22.4883	436.127
23.315	449.775
24.1425	461.676
24.97	436.407
25.7973	437.969
26.6245	432.268
27.4507	434.935
28.2777	428.42
29.1046	427.399
29.9314	412.414
30.7571	396.063
31.5837	406.981
32.4101	389.744
33.2365	389.109
34.0618	405.348
34.8879	403.896
35.714	400.749
36.5389	408.795
37.3648	398.219
38.1905	387.748
39.0151	409.47
39.8406	385.71
40.6651	379.162
41.4903	369.295
42.3155	377.399
43.1396	381.596
43.9646	390.208
44.7885	369.421
45.6132	385.945
46.4369	385.113
47.2614	393.413
48.0859	394.024
48.9092	382.145
49.7335	399.625
50.5566	388.466
51.3806	386.602
52.2035	401.389
53.0273	390.26
53.85	379.055
54.6726	389.518
55.4961	350.171
56.3185	364.594
57.1417	379.102
57.9639	378.203
58.787	373.533
59.6089	366.595
60.4308	358.079
61.2535	356.936
62.0751	377.98
62.8967	356.881
63.7191	359.151
64.5404	374.871
65.3616	389.089
66.1837	367.828
67.0047	373.198
67.8256	382.867
68.6473	379.976
69.468	373.118
70.2886	360.138
71.1091	370.271
71.9304	376.013
72.7507	378.668
73.5708	355.451
74.3909	358.916
75.2118	364.518
76.0316	377.966
76.8513	368.957
77.6709	368.481
78.4905	359.123
79.3099	352.973
80.1301	350.114
80.9493	345.853
81.7684	348.877
82.5874	344.128
83.4063	340.714
84.225	329.615
85.0437	345.979
85.8623	327.456
86.6807	333.869
87.4991	343.131
88.3173	345.835
89.1364	337.833
89.9544	334.914
90.7724	328.251
91.5902	336.919
92.4079	329.534
93.2255	328.426
94.043	326.515
94.8604	305.791
95.6767	332.367
96.4939	316.73
97.311	325.162
98.1279	334.514
98.9448	338.999
99.7616	325.802
100.578	325.209
101.395	332.749
102.211	337.646
103.028	341.976
103.844	331.426
104.659	348.098
105.475	339.798
106.291	341.228
107.107	329.355
107.922	337.826
108.737	340.464
109.552	345.802
110.368	350.553
111.183	349.247
111.998	359.362
112.812	360.277
113.627	354.555
114.442	370.668
115.257	369.687
116.071	384.188
116.885	405.4
117.7	418.376
118.513	424.722
119.327	437.081
120.141	462.398
120.954	457.117
121.768	472.255
122.582	461.173
123.395	453.795
124.209	431.616
125.021	420.192
125.834	411.713
126.648	384.375
127.46	352.715
128.273	330.667
129.085	330.928
129.898	328.752
130.71	317.736
131.522	313.772
132.334	311.985
133.146	301.219
133.958	304.476
134.77	298.171
135.581	301.565
136.393	295.016
137.204	289.068
138.016	294.135
138.827	288.156
139.638	293.138
140.449	285.019
141.259	290.337
142.071	293.466
142.881	298.183
143.692	284.853
144.502	264.683
145.312	287.727
146.123	265.607
146.932	270.203
147.742	257.397
148.552	262.708
149.362	258.017
150.171	253.891
150.981	244.898
151.79	237.916
152.599	249.029
153.408	234.542
154.218	231.152
155.027	232.995
155.835	233.226
156.644	223.129
157.452	227.369
158.261	238.614
159.069	232.281
159.877	222.19
160.685	223.528
161.493	218.451
162.301	225.691
163.109	224.548
163.917	211.969
164.724	214.496
165.532	214.389
166.339	224.228
167.146	218.454
167.953	217.114
168.76	209.269
169.567	212.168
170.373	220.6
171.18	216.249
171.987	232.198
172.793	212.878
173.599	213.36
174.405	206.77
175.211	197.514
176.017	201.84
176.823	202.445
177.629	201.451
178.435	206.184
179.24	206.632
180.046	207.906
180.851	203.857
181.656	207.935
182.461	202.823
183.266	199.393
184.07	201.091
184.875	200.609
185.68	193.457
186.485	205.941
187.289	192.93
188.094	208.067
188.898	198.727
189.701	201.276
190.505	200.044
191.309	201.872
192.113	196.192
192.916	210.15
193.72	194.824
194.523	196.647
195.327	199.622
196.129	194.966
196.932	192.232
197.736	207.975
198.538	204.467
199.341	192.651
200.144	201.015
200.945	202.27
201.748	194.117
202.551	197.515
203.352	191.919
204.155	210.994
204.957	201.636
205.758	200.853
206.56	188.566
207.361	200.947
208.163	202.314
208.964	195.796
209.765	186.42
210.567	185.111
211.367	198.565
212.169	190.578
212.969	197.14
213.77	188.581
214.57	190.484
215.37	211.315
216.171	206.603
216.971	202.126
217.771	194.18
218.571	206.188
219.371	190.284
220.171	204.87
220.971	199.232
221.77	193.794
222.569	193.991
223.369	188.239
224.168	179.645
224.967	184.4
225.766	191.309
226.565	187.296
227.363	193.869
228.162	188.378
228.961	208.613
229.759	186.046
230.558	193.784
231.356	175.831
232.154	191.058
232.951	178.073
233.75	176.354
234.547	197.057
235.345	188.36
236.142	202.389
236.939	184.039
237.737	188.841
238.534	195.335
239.331	197.482
240.128	185.76
240.925	192.958
241.721	181.012
242.518	172.955
243.315	180.884
244.112	187.5
244.908	190.298
245.704	192.817
246.5	186.839
247.296	176.596
248.092	170.396
248.887	183.86
249.683	180.685
250.478	193.58
251.274	195.453
252.069	179.21
252.864	193.375
253.659	187.351
254.454	179.228
255.249	190.909
256.044	190.538
256.839	188.887
257.633	176.027
258.428	173.692
259.222	184.54
260.016	174.241
260.81	174.672
261.604	177.375
262.398	183.34
263.191	179.527
263.985	170.484
264.779	181.886
265.571	176.355
266.365	188.048
267.158	163.787
267.952	168.278
268.745	167.215
269.537	177.583
270.33	174.6
271.123	174.04
271.915	190.033
272.707	179.021
273.5	180.4
274.292	186.513
275.085	174.012
275.876	186.393
276.668	177.536
277.46	177.808
278.251	171.238
279.043	180.875
279.834	178.334
280.625	173.564
281.417	170.927
282.207	171.51
282.999	174.709
283.789	180.636
284.58	170.768
285.371	180.415
286.161	174.367
286.952	175.643
287.742	181.181
288.533	181.697
289.322	178.73
290.113	188.565
290.902	178.472
291.692	174.873
292.481	171.666
293.271	183.327
294.06	177.2
294.85	176.226
295.639	173.111
296.428	175.216
297.217	182.5
298.006	178.464
298.795	184.251
299.584	167.2
300.372	176.256
301.161	170.955
301.949	179.831
302.737	173.946
303.525	181.858
304.313	172.537
305.101	170.194
305.888	181.079
306.677	170.54
307.464	169.182
308.251	174.163
309.039	185.183
309.826	170.261
310.613	175.887
311.4	177.659
312.186	181.264
312.974	180.88
313.761	182.452
314.547	179.171
315.333	175.232
316.119	177.536
316.906	173.431
317.693	168.475
318.478	171.553
319.264	168.332
320.05	179.315
320.836	185.796
321.621	177.812
322.406	168.752
323.192	176.441
323.977	173.26
324.762	181.587
325.547	175.828
326.332	176.942
327.117	178.573
327.902	179.573
328.686	187.247
329.471	184.789
330.255	185.77
331.039	190.125
331.824	189.989
332.608	186.621
333.392	190.455
334.176	184.095
334.96	180.431
335.743	182.413
336.526	190.537
337.309	189.763
338.093	190.111
338.876	190.944
339.659	183.236
340.443	179.437
341.225	174.706
342.008	178.797
342.79	185.55
343.573	180.017
344.356	173.93
345.137	173.215
345.92	175.653
346.702	171.907
347.484	174.206
348.266	170.245
349.048	172.799
349.83	172.313
350.61	171.621
351.392	173.735
352.174	178.097
352.954	180.919
353.736	177.116
354.517	178.758
355.298	174.385
356.079	180.553
356.859	178.706
357.64	174.846
358.421	172.359
359.201	172.613
359.981	169.235
360.761	169.877
361.541	176.09
362.321	165.793
363.101	172.182
363.88	175.157
364.66	165.671
365.439	171.93
366.219	175.454
366.998	170.17
367.778	159.788
368.556	164.139
369.335	170.342
370.114	172.237
370.893	176.061
371.672	169.499
372.45	165.568
373.228	170.664
374.007	167.022
374.785	156.409
375.563	155.535
376.341	167.223
377.119	163.476
377.896	171.429
378.674	177.121
379.452	175.902
380.229	166.237
381.006	158.277
381.784	164.307
382.561	174.116
383.338	164.551
384.114	166.356
384.892	171.252
385.668	162.461
386.445	170.905
387.221	182.446
387.997	186.548
388.774	179.047
389.55	179.475
390.326	172.696
391.102	177.568
391.878	178.696
392.653	173.135
393.429	182.937
394.204	181.59
394.98	169.776
395.755	185.102
396.53	181.18
397.305	180.091
398.081	178.273
398.856	174.426
399.63	177.384
400.405	170.792
401.179	163.626
401.953	167.41
402.727	168.054
403.502	167.716
404.276	156.71
405.05	155.05
405.824	154.11
406.598	159.235
407.371	170.781
408.145	169.577
408.919	172.064
409.692	160.151
410.465	165.109
411.238	164.648
412.011	157.604
412.784	169.28
413.557	172.907
414.329	167.567
415.102	166.201
415.875	167.285
416.647	176.688
417.42	169.769
418.191	172.723
418.964	175.796
419.736	169.419
420.507	162.415
421.279	163.246
421.868	175.295
422.641	159.256
423.416	175.144
424.189	157.261
424.964	165.04
425.737	164.954
426.511	168.869
427.284	152.991
428.058	174.554
428.831	160.718
429.605	174.32
430.378	160.582
431.15	166.523
431.924	168.354
432.696	142.863
433.469	160.343
434.242	156.377
435.014	177.525
435.787	150.447
436.559	151.997
437.331	157.717
438.103	161.9
438.875	161.702
439.646	163.24
440.419	140.492
441.19	165.269
441.962	163.299
442.733	159.705
443.505	159.842
444.276	161.539
445.047	163.362
445.817	174.352
446.589	146.26
447.36	148.122
448.13	164.743
448.9	161.107
449.671	168.394
450.441	160.833
451.212	153.659
451.982	153.473
452.752	154.707
453.522	162.146
454.292	160.262
455.061	165.047
455.831	148.604
456.6	160.568
457.369	142.388
458.14	155.256
458.909	162.563
459.678	151.232
460.447	143.578
461.216	155.344
461.984	167.818
462.753	152.264
463.522	164.732
464.29	166.519
465.059	163.024
465.827	153.302
466.595	150.402
467.362	146.825
468.13	149.569
468.898	155.613
469.666	139.741
470.434	152.185
471.201	145.233
471.969	151.068
472.736	152.825
473.503	154.906
474.271	151.779
475.037	143.607
475.804	146.273
476.571	143.688
477.338	148.896
478.104	150.608
478.87	151.395
479.637	155.428
480.403	149.044
481.17	154.653
481.935	136.084
482.701	159.217
483.467	137.925
484.233	153.188
484.998	158.541
485.764	151.054
486.53	152.736
487.294	144.704
488.06	156.244
488.825	130.587
489.59	147.635
490.355	146.828
491.12	135.671
491.884	148.198
492.649	130.594
493.414	139.317
494.178	141.635
494.942	148.327
495.706	140.715
496.47	144.338
497.234	144.913
497.998	148
498.761	144.121
499.525	144.493
500.289	152.388
501.052	144.055
501.816	147.703
502.579	148.164
503.342	154.026
504.105	148.81
504.868	134.91
505.631	144.579
506.393	159.675
507.156	148.33
507.918	155.323
508.68	154.386
509.443	153.846
510.205	161.081
510.968	150.817
511.729	152.735
512.491	154.726
513.253	152.496
514.015	150.468
514.776	141.302
515.538	142.52
516.299	144.035
517.06	132.117
517.822	133.878
518.582	138.997
519.343	144.431
520.104	145.594
520.865	138.697
521.626	148.394
522.386	138.653
523.146	148.37
523.906	151.22
524.667	148.283
525.427	145.044
526.187	150.917
526.947	140.927
527.706	142.918
528.466	150.023
529.225	138.834
529.986	133.413
530.745	136.848
531.504	131.625
532.263	133.202
533.022	139.873
533.781	140.468
534.54	138.266
535.298	142.403
536.057	141.151
536.816	139.136
537.574	140.71
538.332	133.826
539.091	130.436
539.849	136.752
540.607	134.617
541.365	125.855
542.122	146.791
542.88	133.167
543.638	136.993
544.395	138.939
545.153	136.11
545.91	137.959
546.668	126.578
547.424	133.116
548.181	141.805
548.938	131.82
549.695	127.244
550.452	147.144
551.208	135.769
551.965	142.422
552.721	140.125
553.477	131.915
554.234	135.475
554.99	136.273
555.745	135.585
556.501	136.208
557.257	141.364
558.013	140.591
558.768	127.68
559.523	136.769
560.279	135.276
561.035	134.597
561.789	140.015
562.544	130.721
563.3	132.086
564.054	131.871
564.809	132.201
565.564	123.394
566.318	133.693
567.073	119.818
567.826	134.012
568.581	141.987
569.335	131.189
570.089	131.305
570.843	130.349
571.596	140.222
572.35	129.005
573.104	125.825
573.857	132.727
574.61	132.713
575.364	125.215
576.117	134.934
576.87	137.524
577.623	129.497
578.376	134.714
579.129	134.131
579.882	132.09
580.634	137.517
581.386	134.369
582.139	132.685
582.891	124.669
583.643	136.25
584.395	135.669
585.147	128.593
585.899	132.472
586.651	126.164
587.402	126.976
588.154	127.516
588.905	121.654
589.656	117.8
590.408	122.244
591.159	130.628
591.91	132.873
592.661	133.885
593.412	124.247
594.163	120.77
594.913	131.213
595.663	128.339
596.414	131.215
597.164	137.888
597.914	128.44
598.664	136.836
599.414	126.125
600.165	125.238
600.915	133.967
601.664	131.775
602.414	119.181
603.163	129.177
603.912	134.469
604.662	131.914
605.411	133.41
606.16	137.423
606.909	123.086
607.658	124.86
608.407	130.495
609.156	125.973
609.904	123.613
610.653	129.705
611.401	130.122
612.149	122.322
612.898	124.591
613.646	137.727
614.394	122.648
615.141	124.747
615.888	132.329
616.636	125.739
617.384	127.853
618.131	136.805
618.879	134.689
619.626	130.296
620.373	131.396
621.121	144.685
621.868	132.206
622.614	136.922
623.361	138.622
624.107	126.237
624.854	147.837
625.601	142.21
626.346	139.43
627.093	130.22
627.839	134.325
628.585	140.024
629.331	134.379
630.077	129.142
630.823	135.834
631.569	133.817
632.313	118.289
633.059	126.577
633.805	123.198
634.549	119.383
635.295	124.575
636.04	113.798
636.784	117.222
637.53	124.061
638.275	123.406
639.019	129.944
639.764	131.379
640.507	130.278
641.252	119.581
641.997	119.259
642.74	124.176
643.485	122.216
644.228	125.546
644.972	128.304
645.716	130.615
646.46	124.564
647.203	125.154
647.947	124.543
648.69	130.463
649.433	133.185
650.176	124.017
650.919	129.248
651.662	133.496
652.404	135.721
653.148	124.147
653.89	120.309
654.633	122.902
655.375	127.533
656.117	124.01
656.86	120.579
657.601	120.424
658.343	121.728
659.086	125.331
659.827	121.967
660.568	114.985
661.311	111.171
662.052	115.763
662.793	116.151
663.535	118.933
664.276	117.425
665.017	122.855
665.758	119.186
666.498	114.748
667.24	116.12
667.98	117.531
668.721	119.418
669.461	116.977
670.201	110.419
670.942	108.226
671.682	112.382
672.422	116.3
673.162	123.368
673.902	128.875
674.642	127.911
675.381	123.124
676.121	120.47
676.86	120.071
677.6	123.443
678.339	123.974
679.079	118.392
679.818	123.308
680.557	118.591
681.296	113.968
682.035	119.094
682.773	118.078
683.512	113.05
684.249	109.363
684.988	112.656
685.726	109.69
686.464	115.8
687.203	108.617
687.941	115.672
688.679	117.738
689.417	119.946
690.154	125.603
690.892	125.549
691.63	110.751
692.366	121.421
693.104	119.954
693.841	118.271
694.578	116.773
695.315	119.569
696.052	120.446
696.789	121.212
697.526	120.9
698.262	115.555
698.998	113.28
699.735	116.876
700.471	119.514
701.208	115.489
701.943	116.597
702.679	115.097
703.416	113.102
704.151	122.045
704.887	115.675
705.623	113.948
706.358	116.793
707.093	115.974
707.829	122.562
708.564	115.032
709.299	108.306
710.034	113.195
710.769	109.9
711.504	120.184
712.238	120.578
712.973	117.098
713.707	117.498
714.442	124.247
715.176	119.764
715.911	115.076
716.644	113.286
717.379	115.937
718.112	115.909
718.846	111.726
719.58	111.464
720.313	109.187
721.047	110.725
721.78	105.721
722.514	108.753
723.247	110.509
723.979	113.925
724.713	119.097
725.446	108.504
726.179	109.332
726.911	113.002
727.644	112.944
728.376	116.222
729.109	118.135
729.841	117.501
730.573	117.092
731.306	109.079
732.038	112.18
732.769	104.949
733.501	102.358
734.233	110.466
734.965	112.365
735.696	111.983
736.427	113.338
737.158	109.348
737.89	114.744
738.621	114.798
739.352	114.04
740.083	109.52
740.814	110.34
741.544	108.747
742.275	114.204
743.005	114.772
743.737	108.957
744.467	104.062
745.197	112.576
745.927	105.593
746.657	108.971
747.387	113.561
748.117	120.024
748.847	108.855
749.576	104.967
750.306	109.668
751.035	108.506
751.765	108.337
752.494	112.244
753.223	118.881
753.952	111.327
754.681	105.285
755.41	112.272
756.138	110.621
756.867	111.28
757.596	114.723
758.324	114.814
759.053	107.377
759.781	109.161
760.509	117.091
761.237	110.735
761.965	101.904
762.693	110.625
763.421	94.8211
764.148	100.998
764.876	101.287
765.604	103.963
766.331	105.57
767.058	102.224
767.785	112.478
768.513	103.005
769.24	107.458
769.966	105.289
770.693	107.92
771.42	108.242
772.146	106.097
772.873	108.419
773.6	112.796
774.326	113.995
775.052	104.454
775.778	108.107
776.504	109.572
777.231	104.43
777.956	108.927
778.682	108.687
779.407	113.872
780.133	106.348
780.858	107.955
781.584	109.834
782.309	111.833
783.034	104.072
783.759	99.0621
784.484	106.184
785.209	103.991
785.934	99.247
786.658	102.346
787.382	116.669
788.107	109.561
788.831	108.115
789.556	111.578
790.28	106.071
791.004	95.0876
791.728	114.033
792.452	112.545
793.175	121.678
793.9	114.225
794.623	111.847
795.346	117.877
796.07	116.035
796.793	123.836
797.516	121.874
798.24	127.919
798.963	124.082
799.685	133.705
800.408	122.357
801.13	124.019
801.854	120.164
802.576	127.787
803.298	112.658
804.021	114.017
804.049	114.092
804.774	118.078
805.498	96.0727
806.223	117.996
806.947	108.049
807.672	102.059
808.396	102.018
809.12	101.963
809.844	115.888
810.568	115.762
811.292	113.842
812.016	100.003
812.74	105.82
813.463	109.737
814.187	113.577
814.91	109.766
815.634	97.7832
816.357	111.368
817.08	109.622
817.802	109.307
818.525	109.363
819.248	101.734
819.971	105.636
820.694	109.259
821.417	111.297
822.138	107.5
822.861	105.342
823.583	105.491
824.305	103.553
825.028	113.145
825.749	122.514
826.471	107.357
827.193	112.696
827.915	105.256
828.636	111.103
829.357	116.841
830.079	105.748
830.8	111.568
831.521	115.117
832.242	116.877
832.964	131.757
833.684	94.1195
834.405	111.064
835.125	120.916
835.846	118.474
836.567	114.521
837.287	107.311
838.008	111.116
838.727	116.599
839.448	114.753
840.168	108.74
840.888	115.733
841.608	109.192
842.327	114.993
843.047	96.7856
843.766	110.712
844.486	114.293
845.205	119.211
845.925	112.634
846.643	111.986
847.363	119.758
848.082	110.877
848.801	112.244
849.519	118.848
850.238	106.862
850.957	105.834
851.675	100.651
852.394	101.105
853.112	120.335
853.83	107.003
854.548	124.693
855.266	118.356
855.984	119.344
856.702	109.474
857.419	121.888
858.137	129.121
858.855	139.846
859.572	142.303
860.289	149.785
861.007	149.969
861.724	158.608
862.441	145.558
863.158	130.891
863.875	139.173
864.592	122.433
865.308	127.248
866.025	117.441
866.741	118.269
867.458	106.525
868.174	107.605
868.89	117.424
869.606	99.0836
870.322	108.056
871.038	100.829
871.754	108.65
872.47	105.639
873.186	94.0531
873.901	105.364
874.616	99.7309
875.332	102.996
876.047	98.5959
876.762	98.583
877.477	97.661
878.192	104.523
878.907	91.9142
879.622	98.5317
880.336	108.533
881.051	95.6898
881.765	100.544
882.48	103.592
883.194	100.445
883.908	94.5896
884.622	100.825
885.337	95.6005
886.051	95.1354
886.764	93.4622
887.477	102.398
888.191	101.269
888.905	99.6727
889.618	96.5997
890.332	89.1224
891.045	101.399
891.758	98.3209
892.471	97.2729
893.184	103.083
893.897	100.345
894.61	101.602
895.322	97.0339
896.035	97.2833
896.747	95.4825
897.46	95.4814
898.172	95.0191
898.884	88.5139
899.597	96.6499
900.309	103.307
901.02	101.104
901.732	91.3314
902.444	99.2473
903.155	88.6666
903.867	93.3455
904.579	104.111
905.29	92.2076
906.001	93.8254
906.712	92.8813
907.423	97.7612
908.135	91.3623
908.845	90.9862
909.556	100.182
910.266	88.4554
910.977	96.1027
911.688	95.1883
912.398	96.6533
913.108	90.9877
913.819	91.8787
914.529	92.952
915.239	85.1918
915.949	89.0664
916.659	95.0329
917.368	92.9155
918.078	101.038
918.788	93.0006
919.498	95.6362
920.207	99.872
920.916	93.6393
921.625	92.8569
922.334	90.0505
923.044	97.5829
923.752	104.554
924.461	94.8437
925.17	91.6784
925.878	95.4575
926.587	96.1242
927.296	102.932
928.004	95.7601
928.712	95.2644
929.42	90.6599
930.128	90.6099
930.836	99.1632
931.544	93.0214
932.251	105.135
932.96	103.195
